# Lorentzian folded, width=30 cm^-1
# [cm^-1] arbitrary
200.000      2.18012e-02
203.000      2.13743e-02
206.000      2.09700e-02
209.000      2.05872e-02
212.000      2.02249e-02
215.000      1.98821e-02
218.000      1.95577e-02
221.000      1.92510e-02
224.000      1.89612e-02
227.000      1.86876e-02
230.000      1.84294e-02
233.000      1.81861e-02
236.000      1.79570e-02
239.000      1.77416e-02
242.000      1.75394e-02
245.000      1.73500e-02
248.000      1.71729e-02
251.000      1.70077e-02
254.000      1.68540e-02
257.000      1.67116e-02
260.000      1.65802e-02
263.000      1.64594e-02
266.000      1.63489e-02
269.000      1.62487e-02
272.000      1.61584e-02
275.000      1.60779e-02
278.000      1.60070e-02
281.000      1.59456e-02
284.000      1.58936e-02
287.000      1.58508e-02
290.000      1.58173e-02
293.000      1.57929e-02
296.000      1.57776e-02
299.000      1.57714e-02
302.000      1.57743e-02
305.000      1.57864e-02
308.000      1.58076e-02
311.000      1.58381e-02
314.000      1.58779e-02
317.000      1.59271e-02
320.000      1.59859e-02
323.000      1.60543e-02
326.000      1.61327e-02
329.000      1.62212e-02
332.000      1.63201e-02
335.000      1.64295e-02
338.000      1.65498e-02
341.000      1.66813e-02
344.000      1.68243e-02
347.000      1.69793e-02
350.000      1.71466e-02
353.000      1.73268e-02
356.000      1.75203e-02
359.000      1.77277e-02
362.000      1.79497e-02
365.000      1.81868e-02
368.000      1.84398e-02
371.000      1.87096e-02
374.000      1.89969e-02
377.000      1.93028e-02
380.000      1.96282e-02
383.000      1.99744e-02
386.000      2.03425e-02
389.000      2.07339e-02
392.000      2.11501e-02
395.000      2.15928e-02
398.000      2.20637e-02
401.000      2.25649e-02
404.000      2.30985e-02
407.000      2.36670e-02
410.000      2.42731e-02
413.000      2.49196e-02
416.000      2.56100e-02
419.000      2.63479e-02
422.000      2.71374e-02
425.000      2.79831e-02
428.000      2.88902e-02
431.000      2.98645e-02
434.000      3.09126e-02
437.000      3.20417e-02
440.000      3.32604e-02
443.000      3.45782e-02
446.000      3.60060e-02
449.000      3.75565e-02
452.000      3.92439e-02
455.000      4.10851e-02
458.000      4.30994e-02
461.000      4.53093e-02
464.000      4.77414e-02
467.000      5.04268e-02
470.000      5.34025e-02
473.000      5.67124e-02
476.000      6.04091e-02
479.000      6.45561e-02
482.000      6.92305e-02
485.000      7.45263e-02
488.000      8.05594e-02
491.000      8.74738e-02
494.000      9.54492e-02
497.000      1.04713e-01
500.000      1.15554e-01
503.000      1.28344e-01
506.000      1.43565e-01
509.000      1.61847e-01
512.000      1.84020e-01
515.000      2.11183e-01
518.000      2.44794e-01
521.000      2.86770e-01
524.000      3.39583e-01
527.000      4.06251e-01
530.000      4.90025e-01
533.000      5.93277e-01
536.000      7.14787e-01
539.000      8.44816e-01
542.000      9.60062e-01
545.000      1.02664e+00
548.000      1.01892e+00
551.000      9.40767e-01
554.000      8.22025e-01
557.000      6.95241e-01
560.000      5.80379e-01
563.000      4.84699e-01
566.000      4.08253e-01
569.000      3.48326e-01
572.000      3.01693e-01
575.000      2.65483e-01
578.000      2.37398e-01
581.000      2.15682e-01
584.000      1.99020e-01
587.000      1.86445e-01
590.000      1.77252e-01
593.000      1.70936e-01
596.000      1.67150e-01
599.000      1.65672e-01
602.000      1.66387e-01
605.000      1.69276e-01
608.000      1.74415e-01
611.000      1.81978e-01
614.000      1.92254e-01
617.000      2.05663e-01
620.000      2.22800e-01
623.000      2.44478e-01
626.000      2.71799e-01
629.000      3.06241e-01
632.000      3.49768e-01
635.000      4.04917e-01
638.000      4.74793e-01
641.000      5.62758e-01
644.000      6.71301e-01
647.000      7.99302e-01
650.000      9.37094e-01
653.000      1.06148e+00
656.000      1.13895e+00
659.000      1.14480e+00
662.000      1.08419e+00
665.000      9.88231e-01
668.000      8.90693e-01
671.000      8.13111e-01
674.000      7.64920e-01
677.000      7.48999e-01
680.000      7.65838e-01
683.000      8.14864e-01
686.000      8.92948e-01
689.000      9.90083e-01
692.000      1.08391e+00
695.000      1.14021e+00
698.000      1.12880e+00
701.000      1.04646e+00
704.000      9.19127e-01
707.000      7.80057e-01
710.000      6.51598e-01
713.000      5.42737e-01
716.000      4.54250e-01
719.000      3.83519e-01
722.000      3.27161e-01
725.000      2.82069e-01
728.000      2.45714e-01
731.000      2.16127e-01
734.000      1.91814e-01
737.000      1.71640e-01
740.000      1.54746e-01
743.000      1.40478e-01
746.000      1.28330e-01
749.000      1.17913e-01
752.000      1.08921e-01
755.000      1.01113e-01
758.000      9.42956e-02
761.000      8.83157e-02
764.000      8.30476e-02
767.000      7.83896e-02
770.000      7.42576e-02
773.000      7.05825e-02
776.000      6.73066e-02
779.000      6.43817e-02
782.000      6.17672e-02
785.000      5.94291e-02
788.000      5.73382e-02
791.000      5.54702e-02
794.000      5.38039e-02
797.000      5.23217e-02
800.000      5.10084e-02
803.000      4.98510e-02
806.000      4.88386e-02
809.000      4.79620e-02
812.000      4.72135e-02
815.000      4.65869e-02
818.000      4.60770e-02
821.000      4.56798e-02
824.000      4.53926e-02
827.000      4.52133e-02
830.000      4.51412e-02
833.000      4.51763e-02
836.000      4.53196e-02
839.000      4.55732e-02
842.000      4.59401e-02
845.000      4.64246e-02
848.000      4.70320e-02
851.000      4.77690e-02
854.000      4.86439e-02
857.000      4.96664e-02
860.000      5.08483e-02
863.000      5.22035e-02
866.000      5.37485e-02
869.000      5.55028e-02
872.000      5.74894e-02
875.000      5.97355e-02
878.000      6.22737e-02
881.000      6.51422e-02
884.000      6.83874e-02
887.000      7.20644e-02
890.000      7.62402e-02
893.000      8.09961e-02
896.000      8.64312e-02
899.000      9.26680e-02
902.000      9.98583e-02
905.000      1.08192e-01
908.000      1.17908e-01
911.000      1.29312e-01
914.000      1.42794e-01
917.000      1.58862e-01
920.000      1.78178e-01
923.000      2.01615e-01
926.000      2.30325e-01
929.000      2.65835e-01
932.000      3.10150e-01
935.000      3.65837e-01
938.000      4.36001e-01
941.000      5.23902e-01
944.000      6.31694e-01
947.000      7.57442e-01
950.000      8.89978e-01
953.000      1.00428e+00
956.000      1.06624e+00
959.000      1.05321e+00
962.000      9.73341e-01
965.000      8.58360e-01
968.000      7.39945e-01
971.000      6.36549e-01
974.000      5.54606e-01
977.000      4.94149e-01
980.000      4.53007e-01
983.000      4.28895e-01
986.000      4.20239e-01
989.000      4.26446e-01
992.000      4.47954e-01
995.000      4.86197e-01
998.000      5.43387e-01
1001.000      6.21805e-01
1004.000      7.21959e-01
1007.000      8.38737e-01
1010.000      9.55797e-01
1013.000      1.04306e+00
1016.000      1.06729e+00
1019.000      1.01561e+00
1022.000      9.06788e-01
1025.000      7.74834e-01
1028.000      6.46823e-01
1031.000      5.35821e-01
1034.000      4.44779e-01
1037.000      3.71914e-01
1040.000      3.14022e-01
1043.000      2.67934e-01
1046.000      2.30995e-01
1049.000      2.01121e-01
1052.000      1.76718e-01
1055.000      1.56583e-01
1058.000      1.39805e-01
1061.000      1.25695e-01
1064.000      1.13725e-01
1067.000      1.03486e-01
1070.000      9.46632e-02
1073.000      8.70067e-02
1076.000      8.03197e-02
1079.000      7.44446e-02
1082.000      6.92545e-02
1085.000      6.46460e-02
1088.000      6.05349e-02
1091.000      5.68512e-02
1094.000      5.35373e-02
1097.000      5.05447e-02
1100.000      4.78328e-02
1103.000      4.53673e-02
1106.000      4.31188e-02
1109.000      4.10625e-02
1112.000      3.91770e-02
1115.000      3.74436e-02
1118.000      3.58465e-02
1121.000      3.43717e-02
1124.000      3.30071e-02
1127.000      3.17419e-02
1130.000      3.05668e-02
1133.000      2.94736e-02
1136.000      2.84550e-02
1139.000      2.75044e-02
1142.000      2.66162e-02
1145.000      2.57850e-02
1148.000      2.50064e-02
1151.000      2.42762e-02
1154.000      2.35906e-02
1157.000      2.29463e-02
1160.000      2.23404e-02
1163.000      2.17700e-02
1166.000      2.12327e-02
1169.000      2.07262e-02
1172.000      2.02486e-02
1175.000      1.97978e-02
1178.000      1.93723e-02
1181.000      1.89704e-02
1184.000      1.85908e-02
1187.000      1.82322e-02
1190.000      1.78934e-02
1193.000      1.75732e-02
1196.000      1.72707e-02
1199.000      1.69850e-02
1202.000      1.67152e-02
1205.000      1.64606e-02
1208.000      1.62203e-02
1211.000      1.59939e-02
1214.000      1.57806e-02
1217.000      1.55800e-02
1220.000      1.53914e-02
1223.000      1.52145e-02
1226.000      1.50488e-02
1229.000      1.48940e-02
1232.000      1.47496e-02
1235.000      1.46154e-02
1238.000      1.44911e-02
1241.000      1.43763e-02
1244.000      1.42709e-02
1247.000      1.41747e-02
1250.000      1.40874e-02
1253.000      1.40089e-02
1256.000      1.39391e-02
1259.000      1.38778e-02
1262.000      1.38251e-02
1265.000      1.37807e-02
1268.000      1.37446e-02
1271.000      1.37168e-02
1274.000      1.36974e-02
1277.000      1.36863e-02
1280.000      1.36835e-02
1283.000      1.36892e-02
1286.000      1.37033e-02
1289.000      1.37261e-02
1292.000      1.37576e-02
1295.000      1.37980e-02
1298.000      1.38474e-02
1301.000      1.39061e-02
1304.000      1.39743e-02
1307.000      1.40523e-02
1310.000      1.41404e-02
1313.000      1.42389e-02
1316.000      1.43481e-02
1319.000      1.44685e-02
1322.000      1.46006e-02
1325.000      1.47448e-02
1328.000      1.49016e-02
1331.000      1.50718e-02
1334.000      1.52559e-02
1337.000      1.54547e-02
1340.000      1.56689e-02
1343.000      1.58995e-02
1346.000      1.61474e-02
1349.000      1.64137e-02
1352.000      1.66995e-02
1355.000      1.70061e-02
1358.000      1.73350e-02
1361.000      1.76876e-02
1364.000      1.80658e-02
1367.000      1.84713e-02
1370.000      1.89064e-02
1373.000      1.93734e-02
1376.000      1.98748e-02
1379.000      2.04135e-02
1382.000      2.09929e-02
1385.000      2.16164e-02
1388.000      2.22882e-02
1391.000      2.30128e-02
1394.000      2.37954e-02
1397.000      2.46416e-02
1400.000      2.55581e-02
1403.000      2.65523e-02
1406.000      2.76328e-02
1409.000      2.88091e-02
1412.000      3.00925e-02
1415.000      3.14958e-02
1418.000      3.30337e-02
1421.000      3.47235e-02
1424.000      3.65851e-02
1427.000      3.86422e-02
1430.000      4.09222e-02
1433.000      4.34579e-02
1436.000      4.62880e-02
1439.000      4.94590e-02
1442.000      5.30266e-02
1445.000      5.70585e-02
1448.000      6.16370e-02
1451.000      6.68631e-02
1454.000      7.28620e-02
1457.000      7.97895e-02
1460.000      8.78413e-02
1463.000      9.72659e-02
1466.000      1.08381e-01
1469.000      1.21596e-01
1472.000      1.37446e-01
1475.000      1.56630e-01
1478.000      1.80074e-01
1481.000      2.09007e-01
1484.000      2.45053e-01
1487.000      2.90340e-01
1490.000      3.47566e-01
1493.000      4.19905e-01
1496.000      5.10454e-01
1499.000      6.20593e-01
1502.000      7.46392e-01
1505.000      8.73103e-01
1508.000      9.71995e-01
1511.000      1.00944e+00
1514.000      9.69980e-01
1517.000      8.69957e-01
1520.000      7.43151e-01
1523.000      6.17915e-01
1526.000      5.08591e-01
1529.000      4.18870e-01
1532.000      3.47282e-01
1535.000      2.90710e-01
1538.000      2.45990e-01
1541.000      2.10442e-01
1544.000      1.81957e-01
1547.000      1.58922e-01
1550.000      1.40121e-01
1553.000      1.24638e-01
1556.000      1.11777e-01
1559.000      1.01010e-01
1562.000      9.19315e-02
1565.000      8.42265e-02
1568.000      7.76495e-02
1571.000      7.20068e-02
1574.000      6.71446e-02
1577.000      6.29398e-02
1580.000      5.92929e-02
1583.000      5.61233e-02
1586.000      5.33651e-02
1589.000      5.09642e-02
1592.000      4.88759e-02
1595.000      4.70632e-02
1598.000      4.54956e-02
1601.000      4.41474e-02
1604.000      4.29974e-02
1607.000      4.20282e-02
1610.000      4.12252e-02
1613.000      4.05764e-02
1616.000      4.00725e-02
1619.000      3.97058e-02
1622.000      3.94706e-02
1625.000      3.93629e-02
1628.000      3.93802e-02
1631.000      3.95216e-02
1634.000      3.97876e-02
1637.000      4.01801e-02
1640.000      4.07026e-02
1643.000      4.13601e-02
1646.000      4.21596e-02
1649.000      4.31096e-02
1652.000      4.42210e-02
1655.000      4.55071e-02
1658.000      4.69838e-02
1661.000      4.86703e-02
1664.000      5.05899e-02
1667.000      5.27702e-02
1670.000      5.52443e-02
1673.000      5.80521e-02
1676.000      6.12418e-02
1679.000      6.48716e-02
1682.000      6.90123e-02
1685.000      7.37506e-02
1688.000      7.91936e-02
1691.000      8.54735e-02
1694.000      9.27562e-02
1697.000      1.01250e-01
1700.000      1.11221e-01
1703.000      1.23008e-01
1706.000      1.37052e-01
1709.000      1.53925e-01
1712.000      1.74382e-01
1715.000      1.99420e-01
1718.000      2.30361e-01
1721.000      2.68953e-01
1724.000      3.17468e-01
1727.000      3.78752e-01
1730.000      4.56045e-01
1733.000      5.52228e-01
1736.000      6.67764e-01
1739.000      7.96516e-01
1742.000      9.20168e-01
1745.000      1.00717e+00
1748.000      1.02617e+00
1751.000      9.69637e-01
1754.000      8.60688e-01
1757.000      7.33525e-01
1760.000      6.13083e-01
1763.000      5.10454e-01
1766.000      4.27567e-01
1769.000      3.62314e-01
1772.000      3.11507e-01
1775.000      2.72123e-01
1778.000      2.41679e-01
1781.000      2.18264e-01
1784.000      2.00453e-01
1787.000      1.87203e-01
1790.000      1.77775e-01
1793.000      1.71660e-01
1796.000      1.68541e-01
1799.000      1.68257e-01
1802.000      1.70795e-01
1805.000      1.76286e-01
1808.000      1.85018e-01
1811.000      1.97459e-01
1814.000      2.14302e-01
1817.000      2.36526e-01
1820.000      2.65476e-01
1823.000      3.02966e-01
1826.000      3.51366e-01
1829.000      4.13611e-01
1832.000      4.92918e-01
1835.000      5.91758e-01
1838.000      7.09293e-01
1841.000      8.36604e-01
1844.000      9.51451e-01
1847.000      1.02026e+00
1850.000      1.01586e+00
1853.000      9.39604e-01
1856.000      8.20094e-01
1859.000      6.90405e-01
1862.000      5.71570e-01
1865.000      4.71600e-01
1868.000      3.90885e-01
1871.000      3.26785e-01
1874.000      2.76042e-01
1877.000      2.35713e-01
1880.000      2.03417e-01
1883.000      1.77315e-01
1886.000      1.56012e-01
1889.000      1.38457e-01
1892.000      1.23855e-01
1895.000      1.11603e-01
1898.000      1.01238e-01
1901.000      9.24031e-02
1904.000      8.48210e-02
1907.000      7.82729e-02
1910.000      7.25856e-02
1913.000      6.76206e-02
1916.000      6.32661e-02
1919.000      5.94317e-02
1922.000      5.60431e-02
1925.000      5.30394e-02
1928.000      5.03701e-02
1931.000      4.79933e-02
1934.000      4.58737e-02
1937.000      4.39819e-02
1940.000      4.22930e-02
1943.000      4.07859e-02
1946.000      3.94429e-02
1949.000      3.82489e-02
1952.000      3.71911e-02
1955.000      3.62586e-02
1958.000      3.54424e-02
1961.000      3.47348e-02
1964.000      3.41295e-02
1967.000      3.36213e-02
1970.000      3.32063e-02
1973.000      3.28812e-02
1976.000      3.26439e-02
1979.000      3.24930e-02
1982.000      3.24282e-02
1985.000      3.24498e-02
1988.000      3.25590e-02
1991.000      3.27580e-02
1994.000      3.30498e-02
1997.000      3.34385e-02
2000.000      3.39293e-02
2003.000      3.45284e-02
2006.000      3.52437e-02
2009.000      3.60844e-02
2012.000      3.70617e-02
2015.000      3.81886e-02
2018.000      3.94809e-02
2021.000      4.09570e-02
2024.000      4.26388e-02
2027.000      4.45524e-02
2030.000      4.67289e-02
2033.000      4.92053e-02
2036.000      5.20264e-02
2039.000      5.52459e-02
2042.000      5.89291e-02
2045.000      6.31558e-02
2048.000      6.80240e-02
2051.000      7.36549e-02
2054.000      8.01997e-02
2057.000      8.78482e-02
2060.000      9.68414e-02
2063.000      1.07487e-01
2066.000      1.20182e-01
2069.000      1.35443e-01
2072.000      1.53947e-01
2075.000      1.76589e-01
2078.000      2.04555e-01
2081.000      2.39419e-01
2084.000      2.83240e-01
2087.000      3.38649e-01
2090.000      4.08778e-01
2093.000      4.96791e-01
2096.000      6.04416e-01
2099.000      7.28625e-01
2102.000      8.56252e-01
2105.000      9.60099e-01
2108.000      1.00607e+00
2111.000      9.75309e-01
2114.000      8.80619e-01
2117.000      7.55033e-01
2120.000      6.28345e-01
2123.000      5.16525e-01
2126.000      4.24230e-01
2129.000      3.50373e-01
2132.000      2.91923e-01
2135.000      2.45676e-01
2138.000      2.08887e-01
2141.000      1.79378e-01
2144.000      1.55483e-01
2147.000      1.35944e-01
2150.000      1.19810e-01
2153.000      1.06364e-01
2156.000      9.50597e-02
2159.000      8.54769e-02
2162.000      7.72908e-02
2165.000      7.02479e-02
2168.000      6.41480e-02
2171.000      5.88323e-02
2174.000      5.41732e-02
2177.000      5.00678e-02
2180.000      4.64323e-02
2183.000      4.31978e-02
2186.000      4.03077e-02
2189.000      3.77147e-02
2192.000      3.53794e-02
2195.000      3.32687e-02
2198.000      3.13545e-02
2201.000      2.96130e-02
2204.000      2.80239e-02
2207.000      2.65698e-02
2210.000      2.52356e-02
2213.000      2.40083e-02
2216.000      2.28767e-02
2219.000      2.18309e-02
2222.000      2.08624e-02
2225.000      1.99635e-02
2228.000      1.91276e-02
2231.000      1.83488e-02
2234.000      1.76220e-02
2237.000      1.69425e-02
2240.000      1.63061e-02
2243.000      1.57093e-02
2246.000      1.51487e-02
2249.000      1.46214e-02
2252.000      1.41247e-02
2255.000      1.36562e-02
2258.000      1.32137e-02
2261.000      1.27953e-02
2264.000      1.23993e-02
2267.000      1.20239e-02
2270.000      1.16677e-02
2273.000      1.13295e-02
2276.000      1.10079e-02
2279.000      1.07018e-02
2282.000      1.04102e-02
2285.000      1.01323e-02
2288.000      9.86697e-03
2291.000      9.61360e-03
2294.000      9.37140e-03
2297.000      9.13969e-03
2300.000      8.91785e-03
2303.000      8.70529e-03
2306.000      8.50149e-03
2309.000      8.30594e-03
2312.000      8.11818e-03
2315.000      7.93778e-03
2318.000      7.76434e-03
2321.000      7.59749e-03
2324.000      7.43687e-03
2327.000      7.28217e-03
2330.000      7.13307e-03
2333.000      6.98931e-03
2336.000      6.85060e-03
2339.000      6.71671e-03
2342.000      6.58739e-03
2345.000      6.46243e-03
2348.000      6.34163e-03
2351.000      6.22478e-03
2354.000      6.11172e-03
2357.000      6.00225e-03
2360.000      5.89624e-03
2363.000      5.79351e-03
2366.000      5.69393e-03
2369.000      5.59736e-03
2372.000      5.50368e-03
2375.000      5.41275e-03
2378.000      5.32447e-03
2381.000      5.23873e-03
2384.000      5.15543e-03
2387.000      5.07446e-03
2390.000      4.99573e-03
2393.000      4.91916e-03
2396.000      4.84467e-03
2399.000      4.77216e-03
2402.000      4.70157e-03
2405.000      4.63283e-03
2408.000      4.56586e-03
2411.000      4.50060e-03
2414.000      4.43699e-03
2417.000      4.37497e-03
2420.000      4.31448e-03
2423.000      4.25547e-03
2426.000      4.19789e-03
2429.000      4.14168e-03
2432.000      4.08681e-03
2435.000      4.03322e-03
2438.000      3.98088e-03
2441.000      3.92974e-03
2444.000      3.87975e-03
2447.000      3.83090e-03
2450.000      3.78313e-03
2453.000      3.73641e-03
2456.000      3.69072e-03
2459.000      3.64601e-03
2462.000      3.60226e-03
2465.000      3.55944e-03
2468.000      3.51752e-03
2471.000      3.47647e-03
2474.000      3.43627e-03
2477.000      3.39689e-03
2480.000      3.35830e-03
2483.000      3.32049e-03
2486.000      3.28344e-03
2489.000      3.24711e-03
2492.000      3.21149e-03
2495.000      3.17657e-03
2498.000      3.14231e-03
2501.000      3.10871e-03
2504.000      3.07574e-03
2507.000      3.04338e-03
2510.000      3.01163e-03
2513.000      2.98046e-03
2516.000      2.94986e-03
2519.000      2.91982e-03
2522.000      2.89031e-03
2525.000      2.86133e-03
2528.000      2.83286e-03
