# Lorentzian folded, width=30 cm^-1
# [cm^-1] arbitrary
200.000      2.15696e-02
203.000      2.11395e-02
206.000      2.07317e-02
209.000      2.03453e-02
212.000      1.99790e-02
215.000      1.96319e-02
218.000      1.93031e-02
221.000      1.89917e-02
224.000      1.86970e-02
227.000      1.84181e-02
230.000      1.81544e-02
233.000      1.79052e-02
236.000      1.76701e-02
239.000      1.74483e-02
242.000      1.72394e-02
245.000      1.70430e-02
248.000      1.68586e-02
251.000      1.66857e-02
254.000      1.65241e-02
257.000      1.63733e-02
260.000      1.62330e-02
263.000      1.61030e-02
266.000      1.59830e-02
269.000      1.58728e-02
272.000      1.57720e-02
275.000      1.56805e-02
278.000      1.55982e-02
281.000      1.55249e-02
284.000      1.54603e-02
287.000      1.54045e-02
290.000      1.53572e-02
293.000      1.53185e-02
296.000      1.52882e-02
299.000      1.52663e-02
302.000      1.52527e-02
305.000      1.52475e-02
308.000      1.52506e-02
311.000      1.52620e-02
314.000      1.52818e-02
317.000      1.53100e-02
320.000      1.53467e-02
323.000      1.53921e-02
326.000      1.54460e-02
329.000      1.55089e-02
332.000      1.55806e-02
335.000      1.56615e-02
338.000      1.57517e-02
341.000      1.58514e-02
344.000      1.59609e-02
347.000      1.60804e-02
350.000      1.62103e-02
353.000      1.63507e-02
356.000      1.65021e-02
359.000      1.66649e-02
362.000      1.68394e-02
365.000      1.70262e-02
368.000      1.72257e-02
371.000      1.74384e-02
374.000      1.76649e-02
377.000      1.79060e-02
380.000      1.81622e-02
383.000      1.84343e-02
386.000      1.87232e-02
389.000      1.90296e-02
392.000      1.93547e-02
395.000      1.96995e-02
398.000      2.00651e-02
401.000      2.04527e-02
404.000      2.08638e-02
407.000      2.12999e-02
410.000      2.17626e-02
413.000      2.22538e-02
416.000      2.27754e-02
419.000      2.33297e-02
422.000      2.39190e-02
425.000      2.45462e-02
428.000      2.52140e-02
431.000      2.59259e-02
434.000      2.66855e-02
437.000      2.74969e-02
440.000      2.83647e-02
443.000      2.92939e-02
446.000      3.02904e-02
449.000      3.13605e-02
452.000      3.25116e-02
455.000      3.37520e-02
458.000      3.50910e-02
461.000      3.65395e-02
464.000      3.81096e-02
467.000      3.98154e-02
470.000      4.16734e-02
473.000      4.37022e-02
476.000      4.59239e-02
479.000      4.83641e-02
482.000      5.10530e-02
485.000      5.40261e-02
488.000      5.73259e-02
491.000      6.10028e-02
494.000      6.51178e-02
497.000      6.97443e-02
500.000      7.49721e-02
503.000      8.09114e-02
506.000      8.76986e-02
509.000      9.55037e-02
512.000      1.04541e-01
515.000      1.15082e-01
518.000      1.27475e-01
521.000      1.42171e-01
524.000      1.59756e-01
527.000      1.81003e-01
530.000      2.06933e-01
533.000      2.38898e-01
536.000      2.78686e-01
539.000      3.28616e-01
542.000      3.91575e-01
545.000      4.70819e-01
548.000      5.69143e-01
551.000      6.86689e-01
554.000      8.16594e-01
557.000      9.39456e-01
560.000      1.02305e+00
563.000      1.03703e+00
566.000      9.76348e-01
569.000      8.65869e-01
572.000      7.39641e-01
575.000      6.21533e-01
578.000      5.21753e-01
581.000      4.41788e-01
584.000      3.79397e-01
587.000      3.31404e-01
590.000      2.94858e-01
593.000      2.67366e-01
596.000      2.47114e-01
599.000      2.32780e-01
602.000      2.23438e-01
605.000      2.18483e-01
608.000      2.17573e-01
611.000      2.20600e-01
614.000      2.27673e-01
617.000      2.39135e-01
620.000      2.55588e-01
623.000      2.77948e-01
626.000      3.07523e-01
629.000      3.46107e-01
632.000      3.96070e-01
635.000      4.60356e-01
638.000      5.42201e-01
641.000      6.44093e-01
644.000      7.65186e-01
647.000      8.96510e-01
650.000      1.01576e+00
653.000      1.08941e+00
656.000      1.09066e+00
659.000      1.02140e+00
662.000      9.10647e-01
665.000      7.91722e-01
668.000      6.85900e-01
671.000      6.01603e-01
674.000      5.39854e-01
677.000      4.98912e-01
680.000      4.76725e-01
683.000      4.71960e-01
686.000      4.84342e-01
689.000      5.14704e-01
692.000      5.64816e-01
695.000      6.36752e-01
698.000      7.31243e-01
701.000      8.44121e-01
704.000      9.60805e-01
707.000      1.05280e+00
710.000      1.08597e+00
713.000      1.04327e+00
716.000      9.39509e-01
719.000      8.08073e-01
722.000      6.77786e-01
725.000      5.63533e-01
728.000      4.69301e-01
731.000      3.93702e-01
734.000      3.33599e-01
737.000      2.85769e-01
740.000      2.47470e-01
743.000      2.16536e-01
746.000      1.91309e-01
749.000      1.70532e-01
752.000      1.53258e-01
755.000      1.38767e-01
758.000      1.26508e-01
761.000      1.16060e-01
764.000      1.07092e-01
767.000      9.93463e-02
770.000      9.26192e-02
773.000      8.67474e-02
776.000      8.15998e-02
779.000      7.70702e-02
782.000      7.30717e-02
785.000      6.95329e-02
788.000      6.63949e-02
791.000      6.36087e-02
794.000      6.11332e-02
797.000      5.89340e-02
800.000      5.69823e-02
803.000      5.52538e-02
806.000      5.37277e-02
809.000      5.23869e-02
812.000      5.12166e-02
815.000      5.02045e-02
818.000      4.93406e-02
821.000      4.86163e-02
824.000      4.80248e-02
827.000      4.75610e-02
830.000      4.72206e-02
833.000      4.70011e-02
836.000      4.69008e-02
839.000      4.69194e-02
842.000      4.70577e-02
845.000      4.73177e-02
848.000      4.77026e-02
851.000      4.82168e-02
854.000      4.88664e-02
857.000      4.96587e-02
860.000      5.06029e-02
863.000      5.17102e-02
866.000      5.29940e-02
869.000      5.44700e-02
872.000      5.61573e-02
875.000      5.80784e-02
878.000      6.02600e-02
881.000      6.27339e-02
884.000      6.55380e-02
887.000      6.87178e-02
890.000      7.23279e-02
893.000      7.64345e-02
896.000      8.11177e-02
899.000      8.64759e-02
902.000      9.26301e-02
905.000      9.97306e-02
908.000      1.07965e-01
911.000      1.17571e-01
914.000      1.28849e-01
917.000      1.42187e-01
920.000      1.58087e-01
923.000      1.77204e-01
926.000      2.00401e-01
929.000      2.28819e-01
932.000      2.63969e-01
935.000      3.07837e-01
938.000      3.62967e-01
941.000      4.32449e-01
944.000      5.19545e-01
947.000      6.26478e-01
950.000      7.51519e-01
953.000      8.83895e-01
956.000      9.99042e-01
959.000      1.06290e+00
962.000      1.05201e+00
965.000      9.73419e-01
968.000      8.58429e-01
971.000      7.39003e-01
974.000      6.34028e-01
977.000      5.50199e-01
980.000      4.87615e-01
983.000      4.44040e-01
986.000      4.17049e-01
989.000      4.04874e-01
992.000      4.06665e-01
995.000      4.22559e-01
998.000      4.53664e-01
1001.000      5.01972e-01
1004.000      5.69976e-01
1007.000      6.59564e-01
1010.000      7.69358e-01
1013.000      8.89860e-01
1016.000      9.98242e-01
1019.000      1.06062e+00
1022.000      1.05013e+00
1025.000      9.68791e-01
1028.000      8.45496e-01
1031.000      7.13082e-01
1034.000      5.92179e-01
1037.000      4.90501e-01
1040.000      4.08279e-01
1043.000      3.42804e-01
1046.000      2.90789e-01
1049.000      2.49277e-01
1052.000      2.15882e-01
1055.000      1.88758e-01
1058.000      1.66504e-01
1061.000      1.48062e-01
1064.000      1.32633e-01
1067.000      1.19607e-01
1070.000      1.08516e-01
1073.000      9.89986e-02
1076.000      9.07716e-02
1079.000      8.36122e-02
1082.000      7.73430e-02
1085.000      7.18219e-02
1088.000      6.69336e-02
1091.000      6.25844e-02
1094.000      5.86972e-02
1097.000      5.52082e-02
1100.000      5.20644e-02
1103.000      4.92211e-02
1106.000      4.66411e-02
1109.000      4.42925e-02
1112.000      4.21481e-02
1115.000      4.01850e-02
1118.000      3.83830e-02
1121.000      3.67251e-02
1124.000      3.51962e-02
1127.000      3.37834e-02
1130.000      3.24751e-02
1133.000      3.12616e-02
1136.000      3.01339e-02
1139.000      2.90843e-02
1142.000      2.81059e-02
1145.000      2.71926e-02
1148.000      2.63390e-02
1151.000      2.55401e-02
1154.000      2.47916e-02
1157.000      2.40897e-02
1160.000      2.34307e-02
1163.000      2.28116e-02
1166.000      2.22294e-02
1169.000      2.16815e-02
1172.000      2.11657e-02
1175.000      2.06797e-02
1178.000      2.02216e-02
1181.000      1.97897e-02
1184.000      1.93823e-02
1187.000      1.89981e-02
1190.000      1.86355e-02
1193.000      1.82934e-02
1196.000      1.79707e-02
1199.000      1.76664e-02
1202.000      1.73794e-02
1205.000      1.71090e-02
1208.000      1.68542e-02
1211.000      1.66145e-02
1214.000      1.63891e-02
1217.000      1.61774e-02
1220.000      1.59789e-02
1223.000      1.57929e-02
1226.000      1.56192e-02
1229.000      1.54572e-02
1232.000      1.53065e-02
1235.000      1.51669e-02
1238.000      1.50379e-02
1241.000      1.49193e-02
1244.000      1.48109e-02
1247.000      1.47123e-02
1250.000      1.46235e-02
1253.000      1.45442e-02
1256.000      1.44744e-02
1259.000      1.44138e-02
1262.000      1.43624e-02
1265.000      1.43202e-02
1268.000      1.42871e-02
1271.000      1.42630e-02
1274.000      1.42480e-02
1277.000      1.42421e-02
1280.000      1.42454e-02
1283.000      1.42579e-02
1286.000      1.42798e-02
1289.000      1.43112e-02
1292.000      1.43522e-02
1295.000      1.44031e-02
1298.000      1.44641e-02
1301.000      1.45354e-02
1304.000      1.46173e-02
1307.000      1.47102e-02
1310.000      1.48144e-02
1313.000      1.49304e-02
1316.000      1.50585e-02
1319.000      1.51993e-02
1322.000      1.53533e-02
1325.000      1.55212e-02
1328.000      1.57036e-02
1331.000      1.59013e-02
1334.000      1.61151e-02
1337.000      1.63459e-02
1340.000      1.65946e-02
1343.000      1.68624e-02
1346.000      1.71505e-02
1349.000      1.74602e-02
1352.000      1.77929e-02
1355.000      1.81504e-02
1358.000      1.85342e-02
1361.000      1.89465e-02
1364.000      1.93894e-02
1367.000      1.98654e-02
1370.000      2.03772e-02
1373.000      2.09277e-02
1376.000      2.15204e-02
1379.000      2.21590e-02
1382.000      2.28478e-02
1385.000      2.35916e-02
1388.000      2.43956e-02
1391.000      2.52661e-02
1394.000      2.62099e-02
1397.000      2.72348e-02
1400.000      2.83498e-02
1403.000      2.95651e-02
1406.000      3.08926e-02
1409.000      3.23457e-02
1412.000      3.39403e-02
1415.000      3.56945e-02
1418.000      3.76298e-02
1421.000      3.97711e-02
1424.000      4.21480e-02
1427.000      4.47955e-02
1430.000      4.77552e-02
1433.000      5.10770e-02
1436.000      5.48214e-02
1439.000      5.90612e-02
1442.000      6.38860e-02
1445.000      6.94058e-02
1448.000      7.57569e-02
1451.000      8.31101e-02
1454.000      9.16807e-02
1457.000      1.01743e-01
1460.000      1.13647e-01
1463.000      1.27851e-01
1466.000      1.44947e-01
1469.000      1.65721e-01
1472.000      1.91208e-01
1475.000      2.22784e-01
1478.000      2.62265e-01
1481.000      3.12004e-01
1484.000      3.74918e-01
1487.000      4.54262e-01
1490.000      5.52727e-01
1493.000      6.70121e-01
1496.000      7.98857e-01
1499.000      9.18494e-01
1502.000      9.96241e-01
1505.000      1.00279e+00
1508.000      9.35417e-01
1511.000      8.20448e-01
1514.000      6.91643e-01
1517.000      5.71825e-01
1520.000      4.70351e-01
1523.000      3.88258e-01
1526.000      3.23118e-01
1529.000      2.71679e-01
1532.000      2.30945e-01
1535.000      1.98468e-01
1538.000      1.72349e-01
1541.000      1.51150e-01
1544.000      1.33784e-01
1547.000      1.19433e-01
1550.000      1.07475e-01
1553.000      9.74341e-02
1556.000      8.89457e-02
1559.000      8.17250e-02
1562.000      7.55489e-02
1565.000      7.02412e-02
1568.000      6.56613e-02
1571.000      6.16963e-02
1574.000      5.82550e-02
1577.000      5.52631e-02
1580.000      5.26597e-02
1583.000      5.03947e-02
1586.000      4.84268e-02
1589.000      4.67218e-02
1592.000      4.52510e-02
1595.000      4.39909e-02
1598.000      4.29218e-02
1601.000      4.20273e-02
1604.000      4.12942e-02
1607.000      4.07113e-02
1610.000      4.02701e-02
1613.000      3.99638e-02
1616.000      3.97872e-02
1619.000      3.97369e-02
1622.000      3.98111e-02
1625.000      4.00093e-02
1628.000      4.03325e-02
1631.000      4.07832e-02
1634.000      4.13653e-02
1637.000      4.20845e-02
1640.000      4.29482e-02
1643.000      4.39656e-02
1646.000      4.51482e-02
1649.000      4.65101e-02
1652.000      4.80679e-02
1655.000      4.98421e-02
1658.000      5.18566e-02
1661.000      5.41407e-02
1664.000      5.67288e-02
1667.000      5.96629e-02
1670.000      6.29931e-02
1673.000      6.67805e-02
1676.000      7.10993e-02
1679.000      7.60404e-02
1682.000      8.17158e-02
1685.000      8.82648e-02
1688.000      9.58615e-02
1691.000      1.04726e-01
1694.000      1.15137e-01
1697.000      1.27455e-01
1700.000      1.42143e-01
1703.000      1.59810e-01
1706.000      1.81256e-01
1709.000      2.07537e-01
1712.000      2.40058e-01
1715.000      2.80668e-01
1718.000      3.31759e-01
1721.000      3.96287e-01
1724.000      4.77514e-01
1727.000      5.78051e-01
1730.000      6.97425e-01
1733.000      8.27436e-01
1736.000      9.46791e-01
1739.000      1.02231e+00
1742.000      1.02569e+00
1745.000      9.56225e-01
1748.000      8.41413e-01
1751.000      7.14750e-01
1754.000      5.98229e-01
1757.000      5.00586e-01
1760.000      4.22585e-01
1763.000      3.61751e-01
1766.000      3.14899e-01
1769.000      2.79145e-01
1772.000      2.52181e-01
1775.000      2.32268e-01
1778.000      2.18151e-01
1781.000      2.08967e-01
1784.000      2.04169e-01
1787.000      2.03476e-01
1790.000      2.06849e-01
1793.000      2.14486e-01
1796.000      2.26842e-01
1799.000      2.44669e-01
1802.000      2.69081e-01
1805.000      3.01645e-01
1808.000      3.44474e-01
1811.000      4.00271e-01
1814.000      4.72183e-01
1817.000      5.63107e-01
1820.000      6.73769e-01
1823.000      7.98724e-01
1826.000      9.20763e-01
1829.000      1.00911e+00
1832.000      1.03148e+00
1835.000      9.77721e-01
1838.000      8.68926e-01
1841.000      7.39305e-01
1844.000      6.14884e-01
1847.000      5.07719e-01
1850.000      4.20230e-01
1853.000      3.50458e-01
1856.000      2.95196e-01
1859.000      2.51337e-01
1862.000      2.16296e-01
1865.000      1.88051e-01
1868.000      1.65063e-01
1871.000      1.46169e-01
1874.000      1.30493e-01
1877.000      1.17368e-01
1880.000      1.06287e-01
1883.000      9.68597e-02
1886.000      8.87810e-02
1889.000      8.18133e-02
1892.000      7.57682e-02
1895.000      7.04956e-02
1898.000      6.58746e-02
1901.000      6.18075e-02
1904.000      5.82145e-02
1907.000      5.50298e-02
1910.000      5.21994e-02
1913.000      4.96782e-02
1916.000      4.74286e-02
1919.000      4.54189e-02
1922.000      4.36225e-02
1925.000      4.20170e-02
1928.000      4.05834e-02
1931.000      3.93053e-02
1934.000      3.81692e-02
1937.000      3.71635e-02
1940.000      3.62782e-02
1943.000      3.55051e-02
1946.000      3.48374e-02
1949.000      3.42694e-02
1952.000      3.37965e-02
1955.000      3.34151e-02
1958.000      3.31227e-02
1961.000      3.29175e-02
1964.000      3.27986e-02
1967.000      3.27661e-02
1970.000      3.28206e-02
1973.000      3.29638e-02
1976.000      3.31984e-02
1979.000      3.35278e-02
1982.000      3.39567e-02
1985.000      3.44907e-02
1988.000      3.51368e-02
1991.000      3.59035e-02
1994.000      3.68009e-02
1997.000      3.78410e-02
2000.000      3.90382e-02
2003.000      4.04092e-02
2006.000      4.19743e-02
2009.000      4.37571e-02
2012.000      4.57861e-02
2015.000      4.80949e-02
2018.000      5.07241e-02
2021.000      5.37225e-02
2024.000      5.71490e-02
2027.000      6.10753e-02
2030.000      6.55894e-02
2033.000      7.07996e-02
2036.000      7.68405e-02
2039.000      8.38803e-02
2042.000      9.21316e-02
2045.000      1.01865e-01
2048.000      1.13427e-01
2051.000      1.27267e-01
2054.000      1.43973e-01
2057.000      1.64317e-01
2060.000      1.89323e-01
2063.000      2.20348e-01
2066.000      2.59185e-01
2069.000      3.08160e-01
2072.000      3.70167e-01
2075.000      4.48456e-01
2078.000      5.45780e-01
2081.000      6.62161e-01
2084.000      7.90478e-01
2087.000      9.10959e-01
2090.000      9.91165e-01
2093.000      1.00108e+00
2096.000      9.36450e-01
2099.000      8.22654e-01
2102.000      6.93629e-01
2105.000      5.72859e-01
2108.000      4.70228e-01
2111.000      3.87031e-01
2114.000      3.20924e-01
2117.000      2.68663e-01
2120.000      2.27227e-01
2123.000      1.94142e-01
2126.000      1.67486e-01
2129.000      1.45801e-01
2132.000      1.27984e-01
2135.000      1.13207e-01
2138.000      1.00840e-01
2141.000      9.03994e-02
2144.000      8.15160e-02
2147.000      7.39010e-02
2150.000      6.73280e-02
2153.000      6.16179e-02
2156.000      5.66278e-02
2159.000      5.22426e-02
2162.000      4.83692e-02
2165.000      4.49311e-02
2168.000      4.18658e-02
2171.000      3.91213e-02
2174.000      3.66543e-02
2177.000      3.44286e-02
2180.000      3.24135e-02
2183.000      3.05831e-02
2186.000      2.89155e-02
2189.000      2.73916e-02
2192.000      2.59952e-02
2195.000      2.47124e-02
2198.000      2.35310e-02
2201.000      2.24404e-02
2204.000      2.14313e-02
2207.000      2.04959e-02
2210.000      1.96268e-02
2213.000      1.88179e-02
2216.000      1.80635e-02
2219.000      1.73589e-02
2222.000      1.66995e-02
2225.000      1.60816e-02
2228.000      1.55016e-02
2231.000      1.49563e-02
2234.000      1.44431e-02
2237.000      1.39593e-02
2240.000      1.35027e-02
2243.000      1.30711e-02
2246.000      1.26628e-02
2249.000      1.22761e-02
2252.000      1.19093e-02
2255.000      1.15611e-02
2258.000      1.12302e-02
2261.000      1.09155e-02
2264.000      1.06158e-02
2267.000      1.03301e-02
2270.000      1.00576e-02
2273.000      9.79748e-03
2276.000      9.54889e-03
2279.000      9.31115e-03
2282.000      9.08361e-03
2285.000      8.86567e-03
2288.000      8.65677e-03
2291.000      8.45639e-03
2294.000      8.26404e-03
2297.000      8.07928e-03
2300.000      7.90170e-03
2303.000      7.73091e-03
2306.000      7.56654e-03
2309.000      7.40827e-03
2312.000      7.25577e-03
2315.000      7.10875e-03
2318.000      6.96693e-03
2321.000      6.83007e-03
2324.000      6.69791e-03
2327.000      6.57023e-03
2330.000      6.44681e-03
2333.000      6.32747e-03
2336.000      6.21200e-03
2339.000      6.10023e-03
2342.000      5.99200e-03
2345.000      5.88715e-03
2348.000      5.78552e-03
2351.000      5.68698e-03
2354.000      5.59140e-03
2357.000      5.49865e-03
2360.000      5.40861e-03
2363.000      5.32116e-03
2366.000      5.23622e-03
2369.000      5.15366e-03
2372.000      5.07341e-03
2375.000      4.99536e-03
2378.000      4.91943e-03
2381.000      4.84554e-03
2384.000      4.77361e-03
2387.000      4.70356e-03
2390.000      4.63534e-03
2393.000      4.56886e-03
2396.000      4.50407e-03
2399.000      4.44090e-03
2402.000      4.37930e-03
2405.000      4.31921e-03
2408.000      4.26058e-03
2411.000      4.20335e-03
2414.000      4.14749e-03
2417.000      4.09294e-03
2420.000      4.03966e-03
2423.000      3.98760e-03
2426.000      3.93673e-03
2429.000      3.88701e-03
2432.000      3.83840e-03
2435.000      3.79087e-03
2438.000      3.74438e-03
2441.000      3.69889e-03
2444.000      3.65438e-03
2447.000      3.61082e-03
2450.000      3.56818e-03
2453.000      3.52642e-03
2456.000      3.48553e-03
2459.000      3.44548e-03
2462.000      3.40624e-03
2465.000      3.36779e-03
2468.000      3.33011e-03
2471.000      3.29317e-03
2474.000      3.25696e-03
2477.000      3.22145e-03
2480.000      3.18662e-03
2483.000      3.15246e-03
2486.000      3.11894e-03
2489.000      3.08605e-03
2492.000      3.05377e-03
2495.000      3.02209e-03
2498.000      2.99099e-03
2501.000      2.96045e-03
2504.000      2.93046e-03
2507.000      2.90101e-03
2510.000      2.87208e-03
2513.000      2.84365e-03
2516.000      2.81573e-03
2519.000      2.78828e-03
2522.000      2.76130e-03
2525.000      2.73479e-03
2528.000      2.70872e-03
